r [cm]      n[cm^-3]     A(mol)      Tk [K]    Tdust[K]     v[km/s]    B[G]
100
 2.500e+13   3.380e+10   1.000e-06    2200.000    1667.300       5.000       1.000
 2.710e+13   2.877e+10   1.000e-06    2096.000    1614.300       5.000       1.000
 2.938e+13   2.448e+10   1.000e-06    1996.900    1563.000       5.000       1.000
 3.185e+13   2.083e+10   1.000e-06    1902.500    1513.400       5.000       1.000
 3.453e+13   1.772e+10   1.000e-06    1812.600    1465.300       5.000       1.000
 3.743e+13   1.508e+10   1.000e-06    1726.900    1418.800       5.000       1.000
 4.057e+13   1.283e+10   1.000e-06    1645.300    1373.700       5.000       1.000
 4.398e+13   1.092e+10   1.000e-06    1567.500    1330.000       5.000       1.000
 4.768e+13   9.293e+09   1.000e-06    1493.400    1287.800       5.000       1.000
 5.169e+13   7.908e+09   1.000e-06    1422.800    1246.900       5.000       1.000
 5.603e+13   6.729e+09   1.000e-06    1355.500    1207.300       5.000       1.000
 6.074e+13   5.726e+09   1.000e-06    1291.500    1168.900       5.000       1.000
 6.585e+13   4.872e+09   1.000e-06    1230.400    1131.800       5.000       1.000
 7.138e+13   4.146e+09   1.000e-06    1172.300    1095.800       5.000       1.000
 7.738e+13   3.528e+09   1.000e-06    1116.800    1061.000       5.000       1.000
 8.389e+13   3.002e+09   1.000e-06    1064.000    1027.300       5.000       1.000
 9.094e+13   2.555e+09   1.000e-06    1013.700     994.680       5.000       1.000
 9.858e+13   2.174e+09   1.000e-06     965.830     963.080       5.000       1.000
 1.069e+14   1.850e+09   1.000e-06     920.170     932.480       5.000       1.000
 1.159e+14   1.574e+09   1.000e-06     876.670     902.860       5.000       1.000
 1.256e+14   6.697e+08   1.000e-06     835.230     874.180      10.000       1.000
 1.362e+14   5.699e+08   1.000e-06     795.750     846.410      10.000       1.000
 1.476e+14   4.849e+08   1.000e-06     758.130     819.520      10.000       1.000
 1.600e+14   4.127e+08   1.000e-06     722.290     793.480      10.000       1.000
 1.734e+14   3.511e+08   1.000e-06     688.150     768.280      10.000       1.000
 1.880e+14   2.988e+08   1.000e-06     655.620     743.870      10.000       1.000
 2.038e+14   1.374e+08   1.000e-06     624.630     720.240      18.500       1.000
 2.210e+14   1.170e+08   1.000e-06     595.100     697.360      18.500       1.000
 2.395e+14   9.952e+07   1.000e-06     566.970     675.210      18.500       1.000
 2.597e+14   8.468e+07   1.000e-06     540.170     653.760      18.500       1.000
 2.815e+14   7.206e+07   1.000e-06     514.630     632.990      18.500       1.000
 3.052e+14   6.132e+07   1.000e-06     490.310     612.880      18.500       1.000
 3.308e+14   5.218e+07   1.000e-06     467.130     593.410      18.500       1.000
 3.586e+14   4.440e+07   1.000e-06     445.050     574.560      18.500       1.000
 3.888e+14   3.778e+07   1.000e-06     424.010     556.300      18.500       1.000
 4.214e+14   3.215e+07   1.000e-06     403.970     538.630      18.500       1.000
 4.569e+14   2.736e+07   1.000e-06     384.870     521.520      18.500       1.000
 4.953e+14   2.328e+07   1.000e-06     366.680     504.950      18.500       1.000
 5.369e+14   1.981e+07   1.000e-06     349.340     488.910      18.500       1.000
 5.820e+14   1.686e+07   1.000e-06     332.830     473.380      18.500       1.000
 6.310e+14   1.434e+07   1.000e-06     317.100     458.340      18.500       1.000
 6.840e+14   1.221e+07   1.000e-06     302.110     443.780      18.500       1.000
 7.415e+14   1.039e+07   1.000e-06     287.830     429.680      18.500       1.000
 8.038e+14   8.838e+06   1.000e-06     274.220     416.030      18.500       1.000
 8.714e+14   7.521e+06   1.000e-06     261.260     402.820      18.500       1.000
 9.446e+14   6.400e+06   1.000e-06     248.910     390.020      18.500       1.000
 1.024e+15   5.446e+06   1.000e-06     237.140     377.630      18.500       1.000
 1.110e+15   4.634e+06   1.000e-06     225.930     365.630      18.500       1.000
 1.203e+15   3.943e+06   1.000e-06     215.250     354.020      18.500       1.000
 1.304e+15   3.355e+06   1.000e-06     205.080     342.770      18.500       1.000
 1.414e+15   2.855e+06   1.000e-06     195.380     331.880      18.500       1.000
 1.533e+15   2.430e+06   1.000e-06     186.150     321.340      18.500       1.000
 1.662e+15   2.068e+06   1.000e-06     177.350     311.130      18.500       1.000
 1.802e+15   1.759e+06   1.000e-06     168.960     301.250      18.500       1.000
 1.953e+15   1.497e+06   1.000e-06     160.980     291.680      18.500       1.000
 2.117e+15   1.274e+06   1.000e-06     153.370     282.410      18.500       1.000
 2.295e+15   1.084e+06   1.000e-06     146.120     273.440      18.500       1.000
 2.488e+15   9.224e+05   1.000e-06     139.210     264.750      18.500       1.000
 2.697e+15   7.849e+05   1.000e-06     132.630     256.340      18.500       1.000
 2.924e+15   6.679e+05   1.000e-06     126.360     248.200      18.500       1.000
 3.170e+15   5.684e+05   1.000e-06     120.390     240.310      18.500       1.000
 3.436e+15   4.836e+05   1.000e-06     114.690     232.680      18.500       1.000
 3.725e+15   4.115e+05   1.000e-06     109.270     225.290      18.500       1.000
 4.038e+15   3.502e+05   1.000e-06     104.110     218.130      18.500       1.000
 4.378e+15   2.980e+05   1.000e-06      99.186     211.200      18.500       1.000
 4.745e+15   2.536e+05   1.000e-06      94.498     204.490      18.500       1.000
 5.144e+15   2.158e+05   1.000e-06      90.030     198.000      18.500       1.000
 5.577e+15   1.836e+05   1.000e-06      85.775     191.710      18.500       1.000
 6.046e+15   1.562e+05   1.000e-06      81.720     185.620      18.500       1.000
 6.554e+15   1.330e+05   1.000e-06      77.857     179.720      18.500       1.000
 7.104e+15   1.131e+05   1.000e-06      74.176     174.010      18.500       1.000
 7.702e+15   9.627e+04   1.000e-06      70.670     168.480      18.500       1.000
 8.349e+15   8.192e+04   1.000e-06      67.329     163.130      18.500       1.000
 9.051e+15   6.971e+04   1.000e-06      64.147     157.950      18.500       1.000
 9.812e+15   5.932e+04   1.000e-06      61.114     152.930      18.500       1.000
 1.064e+16   5.048e+04   1.000e-06      58.225     148.070      18.500       1.000
 1.153e+16   4.295e+04   1.000e-06      55.473     143.370      18.500       1.000
 1.250e+16   3.655e+04   1.000e-06      52.851     138.810      18.500       1.000
 1.355e+16   3.110e+04   1.000e-06      50.352     134.400      18.500       1.000
 1.469e+16   2.646e+04   1.000e-06      47.972     130.130      18.500       1.000
 1.592e+16   2.252e+04   1.000e-06      45.704     126.000      18.500       1.000
 1.726e+16   1.916e+04   1.000e-20      43.544     122.000      18.500       1.000
 1.871e+16   1.631e+04   1.000e-20      41.486     118.120      18.500       1.000
 2.029e+16   1.388e+04   1.000e-20      39.524     114.370      18.500       1.000
 2.199e+16   1.181e+04   1.000e-20      37.656     110.740      18.500       1.000
 2.384e+16   1.005e+04   1.000e-20      35.876     107.220      18.500       1.000
 2.584e+16   8.550e+03   1.000e-20      34.180     103.810      18.500       1.000
 2.802e+16   7.275e+03   1.000e-20      32.564     100.510      18.500       1.000
 3.037e+16   6.191e+03   1.000e-20      31.025      97.320      18.500       1.000
 3.292e+16   5.268e+03   1.000e-20      29.558      94.229      18.500       1.000
 3.569e+16   4.483e+03   1.000e-20      28.161      91.235      18.500       1.000
 3.869e+16   3.814e+03   1.000e-20      26.830      88.337      18.500       1.000
 4.194e+16   3.246e+03   1.000e-20      25.562      85.531      18.500       1.000
 4.547e+16   2.762e+03   1.000e-20      24.353      82.813      18.500       1.000
 4.929e+16   2.350e+03   1.000e-20      23.202      80.183      18.500       1.000
 5.343e+16   2.000e+03   1.000e-20      22.105      77.635      18.500       1.000
 5.792e+16   1.702e+03   1.000e-20      21.060      75.169      18.500       1.000
 6.279e+16   1.448e+03   1.000e-20      20.065      72.781      18.500       1.000
 6.807e+16   1.232e+03   1.000e-20      19.116      70.469      18.500       1.000
 7.379e+16   1.049e+03   1.000e-20      18.213      68.230      18.500       1.000
